File: Data UV Vis/G-ZnO15Persen/85%.csv
sample1;;sample2;
Wavelength (nm);Abs;Wavelength (nm);%R
800;0.804757;800;1.578.822.994
797;0.80369;797;1.584.670.258
794;0.80249;794;1.587.622.738
791;0.801255;791;1.587.517.452
788;0.801813;788;1.592.444.038
785;0.79963;785;1.593.938.637
782;0.79807;782;1.597.319.508
779;0.797512;779;1.600.575.066
776;0.795793;776;1.605.378.914
773;0.796033;773;1.607.620.811
770;0.794726;770;1.615.393.448
767;0.79326;767;1.619.909.096
764;0.792847;764;1.619.060.707
761;0.792472;761;1.622.023.773
758;0.790996;758;1.628.628.922
755;0.789933;755;1.629.945.564
752;0.788028;752;1.640.477.562
749;0.786901;749;1.641.351.509
746;0.786628;746;1.639.808.846
743;0.786338;743;1.648.860.741
740;0.783939;740;1.654.042.053
737;0.783304;737;1.654.403.305
734;0.782248;734;1.659.864.044
731;0.780355;731;1.664.277.077
728;0.779032;728;1.670.381.927
725;0.778342;725;1.675.250.626
722;0.776476;722;1.679.693.604
719;0.775683;719;1.687.050.819
716;0.774397;716;1.690.615.082
713;0.772691;713;1.696.672.058
710;0.771933;710;1.702.929.115
707;0.770523;707;1.702.542.686
704;0.769848;704;1.705.124.092
701;0.767894;701;171.393.261
698;0.768127;698;1.714.398.003
695;0.766597;695;1.721.594.238
692;0.764999;692;1.727.865.791
689;0.764024;689;1.730.689.812
686;0.763055;686;173.354.435
683;0.761755;683;1.739.360.046
680;0.760663;680;1.743.726.349
677;0.759699;677;1.749.705.124
674;0.758921;674;1.752.249.908
671;0.75783;671;1.754.833.221
668;0.756875;668;1.758.199.501
665;0.755621;665;1.762.237.549
662;0.755471;662;1.769.177.818
659;0.753471;659;1.774.033.356
656;0.752907;656;1.775.889.969
653;0.751336;653;1.777.852.249
650;0.750609;650;178.456.955
647;0.749428;647;1.790.461.159
644;0.748587;644;1.796.846.199
641;0.747186;641;1.798.637.772
638;0.746178;638;1.804.236.031
635;0.744845;635;1.809.951.591
632;0.743561;632;1.813.740.921
629;0.742226;629;1.818.507.957
626;0.741373;626;1.823.668.861
623;0.740037;623;1.829.780.197
620;0.739052;620;1.831.541.061
617;0.737601;617;1.837.356.377
614;0.736471;614;1.841.818.619
611;0.735521;611;1.847.055.054
608;0.733592;608;185.431.385
605;0.73227;605;1.859.478.188
602;0.731394;602;1.863.340.569
599;0.729575;599;1.869.799.995
596;0.728944;596;1.874.021.721
593;0.72768;593;1.880.815.887
590;0.726161;590;1.885.677.528
587;0.724618;587;1.895.332.527
584;0.723456;584;1.898.289.299
581;0.721625;581;1.907.011.032
578;0.720148;578;1.914.562.225
575;0.718314;575;1.920.983.696
572;0.716592;572;1.927.809.334
569;0.714977;569;1.935.816.193
566;0.713629;566;1.942.064.095
563;0.711609;563;1.950.043.297
560;0.709814;560;1.958.120.728
557;0.708421;557;1.965.127.182
554;0.706632;554;1.973.928.452
551;0.704429;551;1.982.591.438
548;0.702005;548;1.995.087.242
545;0.699859;545;2.004.113.579
542;0.698264;542;2.012.731.361
539;0.695812;539;20.212.883
536;0.694007;536;2.030.878.448
533;0.692546;533;2.037.890.053
530;0.691099;530;2.044.550.323
527;0.689742;527;2.051.281.357
524;0.688383;524;205.813.446
521;0.686905;521;2.064.444.351
518;0.685916;518;2.068.637.276
515;0.683543;515;2.081.611.061
512;0.68217;512;2.086.453.247
509;0.679996;509;2.094.271.278
506;0.678248;506;2.103.853.416
503;0.676705;503;2.112.326.622
500;0.675508;500;2.118.087.769
497;0.673539;497;2.128.629.494
494;0.671505;494;2.139.235.115
491;0.669807;491;2.145.316.124
488;0.667983;488;2.153.744.507
485;0.666071;485;2.167.635.918
482;0.664598;482;2.171.928.978
479;0.662847;479;218.443.718
476;0.661324;476;2.189.046.097
473;0.659592;473;2.199.670.601
470;0.657671;470;2.204.947.281
467;0.655696;467;2.216.022.682
464;0.652655;464;2.234.394.455
461;0.650926;461;2.239.736.557
458;0.649034;458;2.249.604.607
455;0.646847;455;2.260.801.697
452;0.644621;452;2.270.943.832
449;0.642542;449;2.284.898.758
446;0.640343;446;2.297.796.822
443;0.639298;443;2.299.353.409
440;0.636812;440;2.313.792.801
437;0.635277;437;2.321.795.082
434;0.633622;434;2.333.360.672
431;0.630439;431;2.345.699.883
428;0.629925;428;2.352.907.562
425;0.627226;425;2.362.842.369
422;0.626712;422;2.366.925.812
419;0.625162;419;2.371.562.386
416;0.624977;416;2.377.099.609
413;0.6257;413;2.371.731.758
410;0.627042;410;2.363.945.198
407;0.630695;407;2.342.951.775
404;0.637182;404;2.308.878.899
401;0.647023;401;2.258.899.307
398;0.664368;398;216.608.448
395;0.688706;395;2.047.973.442
392;0.724136;392;1.891.233.063
389;0.772368;389;1.687.979.507
386;0.836455;386;1.456.411.934
383;0.917485;383;1.210.651.398
380;1.008.197.665;380;9.795.883.179
377;1.095.554.352;377;8.062.606.812
374;1.156.468.511;374;6.997.829.437
371;1.182.286.024;371;661.649.704
368;1.195.568.442;368;6.417.585.373
365;1.192.770.481;365;6.451.824.188
362;1.197.715.521;362;6.401.509.762
359;1.190.953.374;359;6.549.244.881
356;1.176.484.704;356;6.680.598.736
353;1.153.198.481;353;7.045.938.969
350;1.095.953.822;350;7.900.791.645
347;1.110.089.183;347;7.663.700.104
344;1.111.356.974;344;782.307.291
341;1.108.900.785;341;7.885.507.584
338;110.494.864;338;7.781.890.869
335;1.107.651.591;335;7.841.103.554
332;110.528.481;332;7.803.610.802
329;1.100.094.914;329;7.853.216.648
326;1.101.274.967;326;7.948.353.291
323;1.092.090.368;323;7.988.490.105
320;109.532.845;320;7.996.434.212
317;1.091.263.652;317;8.143.754.959
314;1.084.327.936;314;8.197.553.635
311;1.084.623.933;311;8.245.613.098
308;1.082.586.884;308;8.203.715.324
305;1.081.410.766;305;8.264.760.017
302;107.973.814;302;8.305.179.596
299;1.077.694.774;299;8.329.909.325
296;1.072.803.736;296;8.333.272.934
293;1.076.753.139;293;8.436.548.233
290;1.075.609.565;290;8.431.653.976
287;1.067.460.418;287;8.519.855.499
284;1.068.652.987;284;8.555.030.823
281;1.062.601.566;281;8.640.360.832
278;1.062.957.764;278;8.626.929.283
275;1.059.317.946;275;869.610.405
272;1.054.214.001;272;8.728.276.253
269;1.049.185.395;269;8.841.959
266;105.005.753;266;8.918.430.328
263;1.049.075.007;263;8.923.980.713
260;104.543.972;260;9.016.617.775
257;1.043.690.562;257;9.065.983.772
254;1.038.680.911;254;9.138.048.172
251;1.035.119.891;251;9.180.251.122
248;1.029.688.478;248;9.256.677.628
245;1.024.330.378;245;942.855.072
242;1.017.677.188;242;9.587.395.668
239;1.011.350.274;239;9.705.679.893
236;1.005.915.642;236;9.838.196.754
233;1.003.134.251;233;9.994.148.254
230;0.996175;230;1.026.310.825
227;0.983839;227;1.055.975.342
224;0.976435;224;1.067.133.331
221;0.968216;221;1.084.080.887
218;0.961821;218;1.111.857.986
215;0.947015;215;1.142.043.972
212;0.941708;212;116.988.554
209;0.917699;209;1.219.440.174
206;0.903758;206;1.273.891.926
203;0.870026;203;1.350.604.916
200;0.842082;200;1.458.189.678
;;;
sample1;;;
sample1;;;
Collection Time: 19/07/2025 12:44:41;;;
Operator Name  :;;;
Scan Software Version: 4.20(470);;;
Parameter List :;;;
Instrument                        Cary 100;;;
Instrument Version                12.00;;;
Start (nm)                        800.00;;;
Stop (nm)                         200.00;;;
X Mode                            Nanometers;;;
Y Mode                            Abs;;;
UV-Vis Scan Rate (nm/min)         600.000;;;
UV-Vis Data Interval (nm)         1.000;;;
UV-Vis Ave. Time (sec)            0.100;;;
UV-Vis SBW (nm)                   2.0;;;
Beam Mode                         Double;;;
Signal-to-noise Mode              Off;;;
UV Source                         On;;;
Vis Source                        On;;;
Source Changeover (nm)            350.00;;;
Baseline Correction               On;;;
Baseline Type                     Baseline correction;;;
Baseline File Name;;;
Baseline Std Ref File Name;;;
Cycle Mode                        Off;;;
Comments;;;
Method Log     :;;;
Method Name    :;;;
Date/Time stamp: 19/07/2025 11:45:35;;;
Method Modifications:;;;
Auto Lamps Off Changed: 19/07/2025 12:00:26; Old:0; New:1;
Baseline Correction Changed: 19/07/2025 12:00:26; Old:0; New:1;
End Method Modifications;;;
<SBW (nm)> ; 2.00;;
<Energy> ; 171.00;;
<Current Wavelength> ; 200.00;;
;;;
sample2;;;
sample2;;;
Collection Time: 19/07/2025 12:52:10;;;
Operator Name  :;;;
Scan Software Version: 4.20(470);;;
Parameter List :;;;
Instrument                        Cary 100;;;
Instrument Version                12.00;;;
Start (nm)                        800.00;;;
Stop (nm)                         200.00;;;
X Mode                            Nanometers;;;
Y Mode                            %R;;;
UV-Vis Scan Rate (nm/min)         600.000;;;
UV-Vis Data Interval (nm)         1.000;;;
UV-Vis Ave. Time (sec)            0.100;;;
UV-Vis SBW (nm)                   2.0;;;
Beam Mode                         Double;;;
Signal-to-noise Mode              Off;;;
UV Source                         On;;;
Vis Source                        On;;;
Source Changeover (nm)            350.00;;;
Baseline Correction               On;;;
Baseline Type                     Baseline correction;;;
Baseline File Name;;;
Baseline Std Ref File Name;;;
Cycle Mode                        Off;;;
Comments;;;
Method Log     :;;;
Method Name    :;;;
Date/Time stamp: 19/07/2025 11:45:35;;;
Method Modifications:;;;
Auto Lamps Off Changed: 19/07/2025 12:00:26; Old:0; New:1;
Baseline Correction Changed: 19/07/2025 12:00:26; Old:0; New:1;
Y mode Changed: 19/07/2025 12:51:46; Old:Abs; New:%R;
End Method Modifications;;;
<SBW (nm)> ; 2.00;;
<Energy> ; 171.00;;
<Current Wavelength> ; 200.00;;