File: Data UV Vis/UNJ_19-7-2025/UNJ_19-7-2025/G-ZnO50Persen/REFdanABS.csv
sample3,,sample4,,
Wavelength (nm),%R,Wavelength (nm),Abs,
800,9.33614,800,1.02986,
797,9.39742,797,1.02744,
794,9.38517,794,1.02681,
791,9.38386,791,1.02647,
788,9.4062,788,1.02552,
785,9.4497,785,1.02447,
782,9.44532,782,1.02531,
779,9.4609,779,1.02311,
776,9.49374,776,1.02259,
773,9.48262,773,1.02297,
770,9.50746,770,1.02168,
767,9.54467,767,1.01988,
764,9.55486,764,1.01998,
761,9.54157,761,1.01835,
758,9.58139,758,1.01714,
755,9.58846,755,1.01706,
752,9.60716,752,1.01633,
749,9.65042,749,1.016011,
746,9.63941,746,1.01578,
743,9.62378,743,1.01539,
740,9.64969,740,1.0152,
737,9.63758,737,1.015,
734,9.65555,734,1.01438,
731,9.64495,731,1.015,
728,9.6333,728,1.01512,
725,9.58204,725,1.01665,
722,9.58526,722,1.01812,
719,9.55177,719,1.01976,
716,9.597,716,1.01695,
713,9.63263,713,1.01577,
710,9.64944,710,1.01554,
707,9.69079,707,1.01418,
704,9.72701,704,1.01113,
701,9.79786,701,1.00888,
698,9.8048,698,1.00693,
695,9.855,695,1.00593,
692,9.873,692,1.00412,
689,9.93123,689,1.00301,
686,9.93666,686,1.00179,
683,9.97549,683,1.00056,
680,10.0011,680,0.998692,
677,10.0171,677,0.998663,
674,10.0515,674,0.996235,
671,10.0793,671,0.995813,
668,10.1014,668,0.99511,
665,10.1369,665,0.993698,
662,10.1737,662,0.993197,
659,10.1999,659,0.991288,
656,10.2006,656,0.991258,
653,10.22,653,0.989938,
650,10.2443,650,0.989016,
647,10.2782,647,0.988545,
644,10.3115,644,0.986773,
641,10.3036,641,0.986614,
638,10.3284,638,0.98542,
635,10.3515,635,0.984207,
632,10.3699,632,0.983338,
629,10.4003,629,0.981928,
626,10.4113,626,0.981689,
623,10.4552,623,0.980812,
620,10.4682,620,0.980109,
617,10.5024,617,0.978791,
614,10.5167,614,0.978606,
611,10.5042,611,0.977541,
608,10.5537,608,0.976305,
605,10.5848,605,0.974794,
602,10.5974,602,0.974081,
599,10.6233,599,0.973455,
596,10.6606,596,0.972419,
593,10.6688,593,0.971508,
590,10.6784,590,0.970659,
587,10.712,587,0.96923,
584,10.7298,584,0.968716,
581,10.7647,581,0.967227,
578,10.7887,578,0.967261,
575,10.8134,575,0.965685,
572,10.8457,572,0.964566,
569,10.861,569,0.964192,
566,10.8661,566,0.963895,
563,10.8779,563,0.963248,
560,10.8908,560,0.963221,
557,10.8895,557,0.962184,
554,10.9122,554,0.962154,
551,10.921,551,0.96201,
548,10.9324,548,0.961035,
545,10.9317,545,0.961266,
542,10.9432,542,0.960421,
539,10.9588,539,0.959865,
536,10.9733,536,0.959531,
533,11.0206,533,0.958009,
530,11.051,530,0.956039,
527,11.0943,527,0.954287,
524,11.1615,524,0.952534,
521,11.2087,521,0.949672,
518,11.2591,518,0.947622,
515,11.3363,515,0.945009,
512,11.386,512,0.943192,
509,11.4307,509,0.941341,
506,11.4896,506,0.939652,
503,11.5107,503,0.937868,
500,11.5648,500,0.936561,
497,11.6166,497,0.934634,
494,11.6446,494,0.933213,
491,11.67,491,0.932199,
488,11.7167,488,0.930326,
485,11.7611,485,0.929489,
482,11.7747,482,0.928855,
479,11.798,479,0.928008,
476,11.8117,476,0.926803,
473,11.8417,473,0.926752,
470,11.8943,470,0.92411,
467,11.9474,467,0.921869,
464,12.0251,464,0.919459,
461,12.0576,461,0.91888,
458,12.1003,458,0.916551,
455,12.1691,455,0.915381,
452,12.2048,452,0.914108,
449,12.2845,449,0.911233,
446,12.3305,446,0.90919,
443,12.3541,443,0.908204,
440,12.4194,440,0.906096,
437,12.4882,437,0.904089,
434,12.5201,434,0.901809,
431,12.6056,431,0.899012,
428,12.6235,428,0.898918,
425,12.7043,425,0.896143,
422,12.7224,422,0.895828,
419,12.8013,419,0.89373,
416,12.7903,416,0.892079,
413,12.846,413,0.891964,
410,12.9016,410,0.890784,
407,12.8519,407,0.890535,
404,12.8467,404,0.891409,
401,12.8137,401,0.893604,
398,12.6111,398,0.899007,
395,12.3701,395,0.907275,
392,12.0321,392,0.920009,
389,11.4981,389,0.939753,
386,10.7991,386,0.970149,
383,9.80336,383,1.01021,
380,8.76837,380,1.06063,
377,7.82751,377,1.10766,
374,7.21023,374,1.14278,
371,6.93696,371,1.15745,
368,6.83856,368,1.16709,
365,6.77966,365,1.16889,
362,6.77382,362,1.1665,
359,6.78018,359,1.16338,
356,6.88665,356,1.16467,
353,6.9148,353,1.15517,
350,7.23462,350,1.13764,
347,8.1329,347,1.08928,
344,8.19006,344,1.08763,
341,8.21029,341,1.08432,
338,8.19933,338,1.0824,
335,8.25454,335,1.08503,
332,8.21607,332,1.08113,
329,8.27287,329,1.08319,
326,8.32769,326,1.08348,
323,8.33334,323,1.07937,
320,8.3382,320,1.07687,
317,8.46517,317,1.07051,
314,8.44397,314,1.06961,
311,8.5783,311,1.07122,
308,8.54967,308,1.07203,
305,8.58787,305,1.06486,
302,8.65291,302,1.07049,
299,8.60075,299,1.06658,
296,8.63342,296,1.06025,
293,8.71352,293,1.06405,
290,8.6754,290,1.06038,
287,8.74253,287,1.05948,
284,8.84437,284,1.0554,
281,8.92047,281,1.04872,
278,8.92776,278,1.04877,
275,8.97378,275,1.05015,
272,8.98342,272,1.04324,
269,9.04215,269,1.04141,
266,9.07675,266,1.04355,
263,9.1089,263,1.04246,
260,9.21303,260,1.03689,
257,9.28175,257,1.03083,
254,9.3085,254,1.02799,
251,9.48709,251,1.02377,
248,9.48266,248,1.0176,
245,9.73441,245,1.01049,
242,9.89215,242,1.0018,
239,10.0644,239,0.996714,
236,10.2543,236,0.988474,
233,10.434,233,0.980665,
230,10.6895,230,0.97128,
227,10.8528,227,0.960632,
224,10.9695,224,0.959229,
221,11.0967,221,0.955647,
218,11.2862,218,0.946217,
215,11.6009,215,0.939161,
212,11.8185,212,0.922368,
209,12.1949,209,0.91263,
206,12.8776,206,0.88721,
203,13.8882,203,0.86216,
200,15.0778,200,0.823768,

sample3,
sample3
Collection Time: 19/07/2025 12:54:50
Operator Name  :
Scan Software Version: 4.20(470)
Parameter List :
Instrument                        Cary 100
Instrument Version                12.00
Start (nm)                        800.00
Stop (nm)                         200.00
X Mode                            Nanometers
Y Mode                            %R
UV-Vis Scan Rate (nm/min)         600.000
UV-Vis Data Interval (nm)         1.000
UV-Vis Ave. Time (sec)            0.100
UV-Vis SBW (nm)                   2.0
Beam Mode                         Double
Signal-to-noise Mode              Off
UV Source                         On
Vis Source                        On
Source Changeover (nm)            350.00
Baseline Correction               On
Baseline Type                     Baseline correction
Baseline File Name
Baseline Std Ref File Name
Cycle Mode                        Off
Comments
Method Log     :
Method Name    :
Date/Time stamp: 19/07/2025 11:45:35
Method Modifications:
Auto Lamps Off Changed: 19/07/2025 12:00:26, Old:0, New:1
Baseline Correction Changed: 19/07/2025 12:00:26, Old:0, New:1
Y mode Changed: 19/07/2025 12:51:46, Old:Abs, New:%R
End Method Modifications
<SBW (nm)> , 2.00
<Energy> , 171.00
<Current Wavelength> , 200.00

sample4,
sample4
Collection Time: 19/07/2025 12:58:48
Operator Name  :
Scan Software Version: 4.20(470)
Parameter List :
Instrument                        Cary 100
Instrument Version                12.00
Start (nm)                        800.00
Stop (nm)                         200.00
X Mode                            Nanometers
Y Mode                            Abs
UV-Vis Scan Rate (nm/min)         600.000
UV-Vis Data Interval (nm)         1.000
UV-Vis Ave. Time (sec)            0.100
UV-Vis SBW (nm)                   2.0
Beam Mode                         Double
Signal-to-noise Mode              Off
UV Source                         On
Vis Source                        On
Source Changeover (nm)            350.00
Baseline Correction               On
Baseline Type                     Baseline correction
Baseline File Name
Baseline Std Ref File Name
Cycle Mode                        Off
Comments
Method Log     :
Method Name    :
Date/Time stamp: 19/07/2025 11:45:35
Method Modifications:
Auto Lamps Off Changed: 19/07/2025 12:00:26, Old:0, New:1
Baseline Correction Changed: 19/07/2025 12:00:26, Old:0, New:1
Y mode Changed: 19/07/2025 12:51:46, Old:Abs, New:%R
Y mode Changed: 19/07/2025 12:58:28, Old:%R, New:Abs
End Method Modifications
<SBW (nm)> , 2.00
<Energy> , 172.00
<Current Wavelength> , 200.00